# Molecule             : resname ACET
# Total Charge         : -1.0e
# Droplet Radius       : 24.0 Ang
# Dielectric Const     : 80.0
#
# Born Equation        : -6.8162 kcal/mol
# Generalized Equation : -6.8269 +- 0.0060 kcal/mol
#
#    Frame     Energy   Diagonal      Cross
#    -----     ------   --------      -----
         1    -6.8224   -11.6229     4.8005
         2    -6.8238   -11.6203     4.7966
         3    -6.8259   -11.6208     4.7949
         4    -6.8353   -11.6278     4.7925
         5    -6.8186   -11.6219     4.8033
         6    -6.8305   -11.6240     4.7934
         7    -6.8236   -11.6211     4.7975
         8    -6.8206   -11.6205     4.7999
         9    -6.8322   -11.6254     4.7932
        10    -6.8255   -11.6239     4.7985
        11    -6.8203   -11.6186     4.7983
        12    -6.8287   -11.6233     4.7946
        13    -6.8209   -11.6199     4.7989
        14    -6.8276   -11.6260     4.7985
        15    -6.8233   -11.6201     4.7968
        16    -6.8307   -11.6296     4.7989
        17    -6.8219   -11.6201     4.7982
        18    -6.8283   -11.6243     4.7960
        19    -6.8261   -11.6232     4.7971
        20    -6.8240   -11.6206     4.7966
        21    -6.8202   -11.6194     4.7992
        22    -6.8345   -11.6282     4.7937
        23    -6.8255   -11.6275     4.8020
        24    -6.8191   -11.6191     4.7999
        25    -6.8232   -11.6201     4.7970
        26    -6.8295   -11.6238     4.7942
        27    -6.8294   -11.6226     4.7933
        28    -6.8177   -11.6228     4.8051
        29    -6.8291   -11.6260     4.7969
        30    -6.8172   -11.6223     4.8051
        31    -6.8224   -11.6200     4.7976
        32    -6.8235   -11.6207     4.7972
        33    -6.8244   -11.6217     4.7972
        34    -6.8286   -11.6231     4.7944
        35    -6.8218   -11.6220     4.8002
        36    -6.8302   -11.6269     4.7966
        37    -6.8246   -11.6220     4.7974
        38    -6.8241   -11.6224     4.7983
        39    -6.8217   -11.6180     4.7964
        40    -6.8295   -11.6229     4.7935
        41    -6.8216   -11.6212     4.7996
        42    -6.8193   -11.6181     4.7988
        43    -6.8279   -11.6249     4.7970
        44    -6.8337   -11.6278     4.7941
        45    -6.8245   -11.6260     4.8015
        46    -6.8263   -11.6220     4.7957
        47    -6.8257   -11.6215     4.7958
        48    -6.8271   -11.6230     4.7959
        49    -6.8326   -11.6262     4.7936
        50    -6.8336   -11.6268     4.7932
        51    -6.8312   -11.6258     4.7946
        52    -6.8206   -11.6199     4.7993
        53    -6.8365   -11.6309     4.7944
        54    -6.8441   -11.6367     4.7926
        55    -6.8339   -11.6310     4.7971
        56    -6.8523   -11.6481     4.7959
        57    -6.8210   -11.6181     4.7971
        58    -6.8220   -11.6191     4.7971
        59    -6.8181   -11.6188     4.8007
        60    -6.8239   -11.6225     4.7986
        61    -6.8273   -11.6224     4.7951
        62    -6.8285   -11.6262     4.7976
        63    -6.8289   -11.6234     4.7945
        64    -6.8233   -11.6228     4.7994
        65    -6.8197   -11.6202     4.8005
        66    -6.8329   -11.6262     4.7932
        67    -6.8298   -11.6241     4.7944
        68    -6.8289   -11.6230     4.7940
        69    -6.8226   -11.6222     4.7996
        70    -6.8227   -11.6193     4.7966
        71    -6.8409   -11.6407     4.7999
        72    -6.8200   -11.6220     4.8020
        73    -6.8362   -11.6301     4.7940
        74    -6.8271   -11.6215     4.7944
        75    -6.8342   -11.6275     4.7933
        76    -6.8195   -11.6212     4.8017
        77    -6.8238   -11.6217     4.7979
        78    -6.8277   -11.6249     4.7972
        79    -6.8225   -11.6209     4.7984
        80    -6.8257   -11.6227     4.7970
        81    -6.8353   -11.6297     4.7944
        82    -6.8378   -11.6296     4.7919
        83    -6.8192   -11.6196     4.8004
        84    -6.8261   -11.6222     4.7960
        85    -6.8235   -11.6259     4.8024
        86    -6.8259   -11.6221     4.7962
        87    -6.8252   -11.6210     4.7959
        88    -6.8248   -11.6220     4.7972
        89    -6.8310   -11.6245     4.7935
        90    -6.8275   -11.6252     4.7977
        91    -6.8237   -11.6220     4.7983
        92    -6.8278   -11.6223     4.7945
        93    -6.8401   -11.6309     4.7908
        94    -6.8307   -11.6230     4.7922
        95    -6.8254   -11.6212     4.7958
        96    -6.8243   -11.6232     4.7990
        97    -6.8336   -11.6272     4.7936
        98    -6.8319   -11.6275     4.7957
        99    -6.8222   -11.6219     4.7997
       100    -6.8283   -11.6232     4.7949
