# Molecule             : resname ACET
# Total Charge         : -1.0e
# Droplet Radius       : 24.0 Ang
# Dielectric Const     : 80.0
#
# Born Equation        : -6.8162 kcal/mol
# Generalized Equation : -6.8478 +- 0.0236 kcal/mol
#
#    Frame     Energy   Diagonal      Cross
#    -----     ------   --------      -----
         1    -6.8672   -11.6749     4.8076
         2    -6.8394   -11.6497     4.8103
         3    -6.8293   -11.6295     4.8002
         4    -6.8450   -11.6514     4.8065
         5    -6.8410   -11.6438     4.8029
         6    -6.9166   -11.7255     4.8089
         7    -6.8958   -11.7051     4.8092
         8    -6.9470   -11.7776     4.8306
         9    -6.8504   -11.6489     4.7986
        10    -6.9110   -11.7492     4.8383
        11    -6.8660   -11.6938     4.8279
        12    -6.8683   -11.7180     4.8498
        13    -6.8530   -11.6655     4.8125
        14    -6.8328   -11.6297     4.7969
        15    -6.8519   -11.6544     4.8024
        16    -6.8677   -11.6654     4.7977
        17    -6.8661   -11.6618     4.7956
        18    -6.8457   -11.6403     4.7945
        19    -6.8737   -11.6804     4.8067
        20    -6.8689   -11.6727     4.8038
        21    -6.8469   -11.6511     4.8042
        22    -6.8270   -11.6293     4.8023
        23    -6.8389   -11.6699     4.8309
        24    -6.8459   -11.6836     4.8377
        25    -6.8317   -11.6652     4.8335
        26    -6.8388   -11.6513     4.8125
        27    -6.8241   -11.6233     4.7992
        28    -6.8265   -11.6242     4.7976
        29    -6.8448   -11.6368     4.7919
        30    -6.8628   -11.6656     4.8029
        31    -6.8492   -11.6568     4.8076
        32    -6.8461   -11.6478     4.8017
        33    -6.8431   -11.6561     4.8130
        34    -6.8383   -11.6414     4.8030
        35    -6.8347   -11.6554     4.8207
        36    -6.8733   -11.7118     4.8384
        37    -6.8308   -11.6453     4.8145
        38    -6.8374   -11.6313     4.7939
        39    -6.8709   -11.6764     4.8055
        40    -6.8715   -11.6741     4.8026
        41    -6.9450   -11.7783     4.8333
        42    -6.8756   -11.6819     4.8063
        43    -6.8832   -11.6900     4.8068
        44    -6.8405   -11.6384     4.7979
        45    -6.8318   -11.6288     4.7970
        46    -6.8294   -11.6263     4.7969
        47    -6.8512   -11.6482     4.7970
        48    -6.8287   -11.6271     4.7985
        49    -6.8376   -11.6425     4.8049
        50    -6.8574   -11.6590     4.8017
        51    -6.8443   -11.6513     4.8069
        52    -6.8325   -11.6407     4.8082
        53    -6.8363   -11.6343     4.7980
        54    -6.8324   -11.6289     4.7965
        55    -6.8189   -11.6206     4.8018
        56    -6.8208   -11.6362     4.8154
        57    -6.8366   -11.6353     4.7987
        58    -6.8261   -11.6220     4.7960
        59    -6.8690   -11.6780     4.8090
        60    -6.8292   -11.6586     4.8293
        61    -6.9011   -11.7879     4.8868
        62    -6.8742   -11.7337     4.8596
        63    -6.8337   -11.6623     4.8286
        64    -6.8559   -11.7250     4.8692
        65    -6.8525   -11.6946     4.8421
        66    -6.8526   -11.6765     4.8238
        67    -6.8458   -11.6685     4.8227
        68    -6.8830   -11.7170     4.8340
        69    -6.8221   -11.6485     4.8264
        70    -6.8271   -11.6612     4.8341
        71    -6.8213   -11.6263     4.8050
        72    -6.8218   -11.6265     4.8047
        73    -6.8193   -11.6234     4.8041
        74    -6.8388   -11.6589     4.8201
        75    -6.8497   -11.6553     4.8056
        76    -6.8278   -11.6269     4.7991
        77    -6.8558   -11.6655     4.8097
        78    -6.8506   -11.6717     4.8211
        79    -6.8341   -11.6531     4.8190
        80    -6.8258   -11.6486     4.8228
        81    -6.8273   -11.6648     4.8375
        82    -6.8195   -11.6430     4.8234
        83    -6.8318   -11.6641     4.8323
        84    -6.8436   -11.6904     4.8468
        85    -6.8222   -11.6448     4.8226
        86    -6.8589   -11.6909     4.8320
        87    -6.8497   -11.6462     4.7965
        88    -6.9086   -11.7111     4.8025
        89    -6.8782   -11.6803     4.8021
        90    -6.8515   -11.6454     4.7939
        91    -6.8738   -11.6737     4.7999
        92    -6.8658   -11.6674     4.8016
        93    -6.8729   -11.6743     4.8014
        94    -6.8625   -11.6631     4.8006
        95    -6.8180   -11.6223     4.8043
        96    -6.8344   -11.6438     4.8094
        97    -6.8538   -11.6707     4.8169
        98    -6.8282   -11.6532     4.8249
        99    -6.8172   -11.6208     4.8036
       100    -6.8261   -11.6421     4.8160
       101    -6.8241   -11.6531     4.8291
       102    -6.8203   -11.6272     4.8069
       103    -6.8409   -11.6636     4.8226
       104    -6.8463   -11.6639     4.8176
       105    -6.8594   -11.6600     4.8006
       106    -6.8496   -11.6424     4.7928
       107    -6.8388   -11.6367     4.7979
       108    -6.8562   -11.6703     4.8141
       109    -6.8694   -11.7028     4.8334
       110    -6.8723   -11.6985     4.8261
       111    -6.8360   -11.6512     4.8152
       112    -6.8238   -11.6385     4.8147
       113    -6.8270   -11.6427     4.8157
       114    -6.8302   -11.6531     4.8228
       115    -6.8302   -11.6444     4.8142
       116    -6.8213   -11.6214     4.8000
       117    -6.8310   -11.6296     4.7985
       118    -6.8260   -11.6218     4.7958
       119    -6.8581   -11.6711     4.8130
       120    -6.8221   -11.6331     4.8110
       121    -6.8172   -11.6216     4.8044
       122    -6.8280   -11.6502     4.8223
       123    -6.8194   -11.6289     4.8094
       124    -6.8473   -11.6523     4.8050
       125    -6.8590   -11.6872     4.8282
       126    -6.8634   -11.6769     4.8136
       127    -6.8440   -11.6614     4.8174
       128    -6.8386   -11.6629     4.8243
       129    -6.8690   -11.7209     4.8518
       130    -6.8470   -11.7011     4.8542
       131    -6.8404   -11.6670     4.8266
       132    -6.8303   -11.6479     4.8176
       133    -6.8454   -11.6674     4.8221
       134    -6.8295   -11.6284     4.7989
       135    -6.8602   -11.6584     4.7982
       136    -6.8308   -11.6288     4.7980
       137    -6.8362   -11.6300     4.7938
       138    -6.8220   -11.6214     4.7994
       139    -6.8289   -11.6290     4.8002
       140    -6.8395   -11.6420     4.8025
       141    -6.8371   -11.6337     4.7966
       142    -6.8564   -11.6526     4.7962
       143    -6.8452   -11.6537     4.8086
       144    -6.8300   -11.6516     4.8216
       145    -6.8435   -11.6539     4.8104
       146    -6.8458   -11.6649     4.8191
       147    -6.8450   -11.6521     4.8071
       148    -6.8891   -11.7356     4.8465
       149    -6.8879   -11.7450     4.8571
       150    -6.8422   -11.6537     4.8114
       151    -6.8284   -11.6365     4.8081
       152    -6.8246   -11.6247     4.8000
       153    -6.8277   -11.6306     4.8029
       154    -6.8362   -11.6310     4.7948
       155    -6.8384   -11.6361     4.7977
       156    -6.8260   -11.6224     4.7965
       157    -6.8311   -11.6280     4.7969
       158    -6.8253   -11.6239     4.7986
       159    -6.8553   -11.6479     4.7926
       160    -6.8387   -11.6338     4.7950
       161    -6.8318   -11.6259     4.7942
       162    -6.8426   -11.6362     4.7937
       163    -6.8219   -11.6258     4.8039
       164    -6.8186   -11.6227     4.8041
       165    -6.8286   -11.6336     4.8050
       166    -6.8274   -11.6543     4.8270
       167    -6.8224   -11.6369     4.8145
       168    -6.8491   -11.6526     4.8035
       169    -6.8506   -11.6533     4.8027
       170    -6.8516   -11.6577     4.8062
       171    -6.8319   -11.6344     4.8026
       172    -6.8289   -11.6268     4.7978
       173    -6.8683   -11.6974     4.8291
       174    -6.8728   -11.7079     4.8351
       175    -6.9001   -11.7468     4.8467
       176    -6.8493   -11.6683     4.8189
       177    -6.8888   -11.7121     4.8232
       178    -6.8232   -11.6211     4.7980
       179    -6.8516   -11.6861     4.8346
       180    -6.8504   -11.6663     4.8159
       181    -6.8667   -11.6716     4.8049
       182    -6.8655   -11.6930     4.8275
       183    -6.8419   -11.6700     4.8281
       184    -6.8299   -11.6259     4.7960
       185    -6.8226   -11.6245     4.8018
       186    -6.8211   -11.6322     4.8111
       187    -6.8254   -11.6373     4.8119
       188    -6.8262   -11.6279     4.8017
       189    -6.8249   -11.6547     4.8298
       190    -6.8214   -11.6419     4.8205
       191    -6.8252   -11.6322     4.8070
       192    -6.8346   -11.6757     4.8411
       193    -6.8321   -11.6749     4.8428
       194    -6.8602   -11.7271     4.8669
       195    -6.8297   -11.6571     4.8274
       196    -6.8408   -11.6715     4.8308
       197    -6.8351   -11.6640     4.8289
       198    -6.8327   -11.6711     4.8384
       199    -6.8353   -11.6430     4.8077
       200    -6.8263   -11.6215     4.7951
       201    -6.8596   -11.6525     4.7929
       202    -6.8470   -11.6428     4.7959
       203    -6.8597   -11.6736     4.8139
       204    -6.8728   -11.6781     4.8053
       205    -6.8602   -11.6615     4.8013
       206    -6.8737   -11.6726     4.7989
       207    -6.8732   -11.6745     4.8013
       208    -6.8332   -11.6382     4.8049
       209    -6.8782   -11.6856     4.8074
       210    -6.8736   -11.6896     4.8160
       211    -6.8343   -11.6399     4.8056
       212    -6.8428   -11.6525     4.8097
       213    -6.8237   -11.6267     4.8030
       214    -6.8400   -11.6351     4.7950
       215    -6.8817   -11.6821     4.8004
       216    -6.8463   -11.6430     4.7968
       217    -6.8553   -11.6636     4.8082
       218    -6.8378   -11.6512     4.8135
       219    -6.8452   -11.6690     4.8238
       220    -6.8193   -11.6276     4.8083
       221    -6.8269   -11.6442     4.8173
       222    -6.8518   -11.6902     4.8384
       223    -6.8615   -11.6864     4.8249
       224    -6.8602   -11.7083     4.8481
       225    -6.8856   -11.7202     4.8346
       226    -6.8601   -11.6607     4.8006
       227    -6.8550   -11.6552     4.8002
       228    -6.8356   -11.6282     4.7925
       229    -6.8487   -11.6444     4.7957
       230    -6.8707   -11.6742     4.8034
       231    -6.8849   -11.6933     4.8084
       232    -6.9281   -11.7457     4.8176
       233    -6.8582   -11.6545     4.7963
       234    -6.8340   -11.6418     4.8078
       235    -6.8462   -11.6762     4.8300
       236    -6.8423   -11.6626     4.8203
       237    -6.8372   -11.6455     4.8083
       238    -6.8465   -11.6497     4.8032
       239    -6.8515   -11.6489     4.7974
       240    -6.8460   -11.6470     4.8010
       241    -6.8506   -11.6835     4.8330
       242    -6.8346   -11.6388     4.8042
       243    -6.8487   -11.6420     4.7933
       244    -6.8240   -11.6223     4.7983
       245    -6.8289   -11.6285     4.7996
       246    -6.8421   -11.6497     4.8075
       247    -6.8588   -11.6913     4.8324
       248    -6.8277   -11.6377     4.8100
       249    -6.8493   -11.6529     4.8036
       250    -6.8310   -11.6535     4.8225
       251    -6.8399   -11.6707     4.8309
       252    -6.8176   -11.6225     4.8049
       253    -6.8337   -11.6366     4.8030
       254    -6.8354   -11.6372     4.8018
       255    -6.9278   -11.7453     4.8175
       256    -6.8733   -11.6825     4.8092
       257    -6.8565   -11.6621     4.8056
       258    -6.8535   -11.6523     4.7988
       259    -6.8236   -11.6307     4.8071
       260    -6.8169   -11.6300     4.8131
       261    -6.8207   -11.6279     4.8071
       262    -6.8518   -11.6755     4.8237
       263    -6.8243   -11.6197     4.7954
       264    -6.8265   -11.6300     4.8035
       265    -6.8297   -11.6436     4.8139
       266    -6.8200   -11.6307     4.8106
       267    -6.8274   -11.6480     4.8206
       268    -6.8238   -11.6380     4.8142
       269    -6.8219   -11.6259     4.8040
       270    -6.8317   -11.6414     4.8097
       271    -6.8368   -11.6386     4.8018
       272    -6.8427   -11.6575     4.8148
       273    -6.8404   -11.6452     4.8048
       274    -6.8348   -11.6405     4.8057
       275    -6.8466   -11.6490     4.8025
       276    -6.8480   -11.6561     4.8081
       277    -6.8549   -11.6623     4.8074
       278    -6.8621   -11.6647     4.8025
       279    -6.8430   -11.6470     4.8040
       280    -6.8614   -11.6673     4.8059
       281    -6.8314   -11.6340     4.8026
       282    -6.8599   -11.6621     4.8022
       283    -6.8559   -11.6750     4.8191
       284    -6.8516   -11.6620     4.8105
       285    -6.8557   -11.6655     4.8098
       286    -6.8255   -11.6248     4.7993
       287    -6.8507   -11.6532     4.8025
       288    -6.8472   -11.6471     4.7999
       289    -6.8408   -11.6496     4.8088
       290    -6.8279   -11.6257     4.7978
       291    -6.8291   -11.6255     4.7964
       292    -6.8543   -11.6567     4.8024
       293    -6.8495   -11.6473     4.7978
       294    -6.8681   -11.6726     4.8045
       295    -6.8746   -11.6936     4.8190
       296    -6.8956   -11.7139     4.8183
       297    -6.8799   -11.6959     4.8160
       298    -6.8474   -11.6435     4.7961
       299    -6.8218   -11.6388     4.8170
       300    -6.8196   -11.6203     4.8007
       301    -6.8226   -11.6219     4.7993
       302    -6.8372   -11.6330     4.7958
       303    -6.8271   -11.6237     4.7967
       304    -6.8612   -11.6576     4.7964
       305    -6.8572   -11.6551     4.7979
       306    -6.8541   -11.6511     4.7969
       307    -6.8439   -11.6414     4.7975
       308    -6.8612   -11.6639     4.8027
       309    -6.8458   -11.6431     4.7973
       310    -6.8485   -11.6455     4.7969
       311    -6.8688   -11.6669     4.7980
       312    -6.8845   -11.6965     4.8120
       313    -6.8578   -11.6518     4.7940
       314    -6.8725   -11.6715     4.7990
       315    -6.8643   -11.6707     4.8064
       316    -6.8705   -11.6922     4.8217
       317    -6.8466   -11.6442     4.7976
       318    -6.8719   -11.6724     4.8004
       319    -6.8586   -11.6637     4.8051
       320    -6.8666   -11.6730     4.8064
       321    -6.8504   -11.6574     4.8069
       322    -6.8264   -11.6322     4.8058
       323    -6.8306   -11.6485     4.8180
       324    -6.8246   -11.6391     4.8145
       325    -6.8227   -11.6256     4.8029
       326    -6.8258   -11.6249     4.7991
       327    -6.8185   -11.6228     4.8043
       328    -6.8350   -11.6353     4.8002
       329    -6.8267   -11.6246     4.7978
       330    -6.8379   -11.6385     4.8006
       331    -6.8278   -11.6297     4.8019
       332    -6.8282   -11.6279     4.7998
       333    -6.8182   -11.6281     4.8099
       334    -6.8622   -11.6627     4.8004
       335    -6.8672   -11.6793     4.8121
       336    -6.8376   -11.6458     4.8082
       337    -6.8504   -11.6611     4.8107
       338    -6.8305   -11.6412     4.8107
       339    -6.8222   -11.6206     4.7984
       340    -6.8602   -11.6687     4.8085
       341    -6.8702   -11.6766     4.8064
       342    -6.8902   -11.7086     4.8184
       343    -6.8666   -11.6816     4.8149
       344    -6.8929   -11.7049     4.8121
       345    -6.8863   -11.6907     4.8044
       346    -6.8811   -11.6835     4.8024
       347    -6.8401   -11.6373     4.7972
       348    -6.8503   -11.6513     4.8010
       349    -6.8231   -11.6290     4.8059
       350    -6.8310   -11.6300     4.7990
       351    -6.8335   -11.6277     4.7941
       352    -6.8333   -11.6276     4.7943
       353    -6.8281   -11.6250     4.7968
       354    -6.8433   -11.6620     4.8186
       355    -6.8601   -11.7040     4.8439
       356    -6.8290   -11.6332     4.8043
       357    -6.8430   -11.6522     4.8091
       358    -6.8365   -11.6376     4.8011
       359    -6.8567   -11.6704     4.8137
       360    -6.8479   -11.6591     4.8112
       361    -6.8385   -11.6429     4.8044
       362    -6.8262   -11.6277     4.8014
       363    -6.8201   -11.6212     4.8011
       364    -6.8270   -11.6494     4.8224
       365    -6.8361   -11.6705     4.8343
       366    -6.8956   -11.7323     4.8367
       367    -6.8333   -11.6663     4.8330
       368    -6.8396   -11.6525     4.8129
       369    -6.8357   -11.6615     4.8258
       370    -6.8431   -11.6613     4.8182
       371    -6.8170   -11.6298     4.8128
       372    -6.8310   -11.6284     4.7974
       373    -6.8350   -11.6295     4.7945
       374    -6.8449   -11.6555     4.8106
       375    -6.8622   -11.6986     4.8363
       376    -6.9281   -11.7973     4.8692
       377    -6.8475   -11.6789     4.8314
       378    -6.8349   -11.6755     4.8406
       379    -6.8406   -11.6583     4.8177
       380    -6.8758   -11.7016     4.8258
       381    -6.8545   -11.6578     4.8033
       382    -6.8406   -11.6534     4.8129
       383    -6.8261   -11.6604     4.8343
       384    -6.8215   -11.6408     4.8194
       385    -6.8301   -11.6487     4.8186
       386    -6.8226   -11.6329     4.8103
       387    -6.8315   -11.6567     4.8252
       388    -6.8433   -11.6798     4.8365
       389    -6.8511   -11.6878     4.8367
       390    -6.8596   -11.6598     4.8002
       391    -6.8561   -11.6527     4.7966
       392    -6.9004   -11.7111     4.8106
       393    -6.8945   -11.7023     4.8078
       394    -6.8795   -11.6800     4.8006
       395    -6.8507   -11.6489     4.7982
       396    -6.8305   -11.6263     4.7958
       397    -6.8512   -11.6516     4.8004
       398    -6.8372   -11.6315     4.7943
       399    -6.8462   -11.6383     4.7921
       400    -6.8497   -11.6531     4.8033
       401    -6.8593   -11.6742     4.8149
       402    -6.8428   -11.6429     4.8001
       403    -6.8717   -11.6910     4.8194
       404    -6.8464   -11.6593     4.8129
       405    -6.8340   -11.6384     4.8044
       406    -6.8492   -11.6537     4.8045
       407    -6.8403   -11.6532     4.8129
       408    -6.8335   -11.6274     4.7939
       409    -6.8479   -11.6409     4.7930
       410    -6.8663   -11.6707     4.8044
       411    -6.8830   -11.6862     4.8032
       412    -6.8515   -11.6599     4.8084
       413    -6.8734   -11.6901     4.8166
       414    -6.8929   -11.7045     4.8116
       415    -6.8513   -11.6469     4.7956
       416    -6.8218   -11.6197     4.7979
       417    -6.8475   -11.6431     4.7956
       418    -6.8350   -11.6505     4.8156
       419    -6.8236   -11.6296     4.8060
       420    -6.8334   -11.6534     4.8200
       421    -6.8187   -11.6286     4.8099
       422    -6.8286   -11.6338     4.8051
       423    -6.8396   -11.6341     4.7945
       424    -6.8213   -11.6226     4.8013
       425    -6.8190   -11.6223     4.8033
       426    -6.8201   -11.6325     4.8124
       427    -6.8294   -11.6270     4.7976
       428    -6.8239   -11.6419     4.8180
       429    -6.8361   -11.6388     4.8027
       430    -6.8572   -11.6814     4.8242
       431    -6.8593   -11.6850     4.8257
       432    -6.8344   -11.6442     4.8099
       433    -6.8482   -11.6577     4.8096
       434    -6.8423   -11.6452     4.8029
       435    -6.8596   -11.6646     4.8050
       436    -6.8620   -11.6779     4.8159
       437    -6.8490   -11.6574     4.8085
       438    -6.8302   -11.6420     4.8118
       439    -6.8555   -11.6607     4.8052
       440    -6.8487   -11.6658     4.8171
       441    -6.8767   -11.7202     4.8435
       442    -6.8382   -11.6438     4.8055
       443    -6.8323   -11.6358     4.8035
       444    -6.8456   -11.6523     4.8066
       445    -6.8676   -11.6824     4.8148
       446    -6.8567   -11.6851     4.8284
       447    -6.8524   -11.6707     4.8183
       448    -6.8458   -11.6587     4.8128
       449    -6.8651   -11.7005     4.8354
       450    -6.9005   -11.7159     4.8154
       451    -6.8506   -11.6449     4.7943
       452    -6.8525   -11.6586     4.8062
       453    -6.8826   -11.7016     4.8190
       454    -6.8490   -11.6457     4.7967
       455    -6.8789   -11.6787     4.7998
       456    -6.8688   -11.6670     4.7982
       457    -6.8873   -11.6902     4.8029
       458    -6.8889   -11.6971     4.8082
       459    -6.8735   -11.6707     4.7973
       460    -6.8504   -11.6452     4.7948
       461    -6.8661   -11.6673     4.8012
       462    -6.8828   -11.6877     4.8050
       463    -6.8870   -11.6886     4.8016
       464    -6.9085   -11.7221     4.8136
       465    -6.8201   -11.6229     4.8028
       466    -6.8397   -11.6365     4.7967
       467    -6.8622   -11.6708     4.8086
       468    -6.8513   -11.6442     4.7930
       469    -6.8392   -11.6337     4.7946
       470    -6.8395   -11.6540     4.8144
       471    -6.8942   -11.7180     4.8238
       472    -6.8396   -11.6731     4.8335
       473    -6.8575   -11.6791     4.8216
       474    -6.8536   -11.6978     4.8443
       475    -6.8518   -11.6634     4.8116
       476    -6.8229   -11.6293     4.8065
       477    -6.8329   -11.6285     4.7956
       478    -6.8678   -11.6662     4.7984
       479    -6.8442   -11.6406     4.7964
       480    -6.8893   -11.6913     4.8019
       481    -6.8840   -11.6855     4.8015
       482    -6.8648   -11.6616     4.7968
       483    -6.8299   -11.6266     4.7966
       484    -6.8315   -11.6489     4.8174
       485    -6.8389   -11.6359     4.7970
       486    -6.8600   -11.6546     4.7946
       487    -6.8883   -11.6900     4.8017
       488    -6.8609   -11.6673     4.8064
       489    -6.8698   -11.6791     4.8094
       490    -6.8683   -11.6785     4.8102
       491    -6.8660   -11.6851     4.8191
       492    -6.8626   -11.6786     4.8161
       493    -6.8500   -11.6507     4.8007
       494    -6.8460   -11.6536     4.8077
       495    -6.8276   -11.6351     4.8075
       496    -6.8578   -11.6803     4.8225
       497    -6.8761   -11.7063     4.8302
       498    -6.9066   -11.7378     4.8312
       499    -6.8412   -11.6604     4.8191
       500    -6.8589   -11.7022     4.8433
       501    -6.8215   -11.6326     4.8111
       502    -6.8415   -11.6533     4.8118
       503    -6.8942   -11.7326     4.8384
       504    -6.8598   -11.6829     4.8230
       505    -6.8846   -11.7319     4.8473
       506    -6.8956   -11.7347     4.8391
       507    -6.8698   -11.6768     4.8070
       508    -6.8585   -11.6600     4.8015
       509    -6.8585   -11.6605     4.8020
       510    -6.8643   -11.6644     4.8000
       511    -6.8448   -11.6387     4.7939
       512    -6.8534   -11.6541     4.8008
       513    -6.8448   -11.6532     4.8085
       514    -6.8305   -11.6272     4.7968
       515    -6.8287   -11.6254     4.7967
       516    -6.8501   -11.6494     4.7993
       517    -6.8443   -11.6465     4.8022
       518    -6.8537   -11.6663     4.8127
       519    -6.8306   -11.6336     4.8030
       520    -6.8248   -11.6300     4.8053
       521    -6.8296   -11.6272     4.7977
       522    -6.8636   -11.6612     4.7976
       523    -6.8490   -11.6481     4.7991
       524    -6.8815   -11.6911     4.8095
       525    -6.8684   -11.6846     4.8162
       526    -6.8233   -11.6256     4.8023
       527    -6.8297   -11.6253     4.7955
       528    -6.8732   -11.6853     4.8121
       529    -6.8495   -11.6643     4.8148
       530    -6.8176   -11.6325     4.8148
       531    -6.8183   -11.6232     4.8049
       532    -6.8186   -11.6204     4.8018
       533    -6.8459   -11.6463     4.8004
       534    -6.8292   -11.6298     4.8006
       535    -6.8243   -11.6400     4.8157
       536    -6.8322   -11.6638     4.8316
       537    -6.8391   -11.6645     4.8253
       538    -6.8375   -11.6465     4.8091
       539    -6.8580   -11.6857     4.8277
       540    -6.8646   -11.6764     4.8118
       541    -6.8958   -11.7117     4.8159
       542    -6.9110   -11.7464     4.8355
       543    -6.9110   -11.7480     4.8370
       544    -6.8741   -11.7300     4.8559
       545    -6.8635   -11.7344     4.8709
       546    -6.8607   -11.6842     4.8235
       547    -6.8976   -11.7619     4.8643
       548    -6.8651   -11.7087     4.8436
       549    -6.8411   -11.6635     4.8224
       550    -6.8768   -11.6899     4.8131
       551    -6.8424   -11.6363     4.7939
       552    -6.8256   -11.6364     4.8108
       553    -6.8250   -11.6305     4.8055
       554    -6.8240   -11.6326     4.8086
       555    -6.8297   -11.6714     4.8417
       556    -6.8278   -11.6626     4.8348
       557    -6.8392   -11.6682     4.8290
       558    -6.8271   -11.6403     4.8132
       559    -6.8276   -11.6395     4.8119
       560    -6.8397   -11.6329     4.7932
       561    -6.8207   -11.6448     4.8241
       562    -6.8218   -11.6292     4.8074
       563    -6.8311   -11.6358     4.8047
       564    -6.8452   -11.6467     4.8015
       565    -6.8912   -11.7075     4.8163
       566    -6.8467   -11.6606     4.8138
       567    -6.8591   -11.6621     4.8031
       568    -6.8528   -11.6580     4.8052
       569    -6.8627   -11.6624     4.7997
       570    -6.8750   -11.6743     4.7993
       571    -6.8999   -11.7209     4.8211
       572    -6.8649   -11.6700     4.8051
       573    -6.8649   -11.6669     4.8020
       574    -6.8624   -11.6614     4.7990
       575    -6.8532   -11.6590     4.8058
       576    -6.8438   -11.6428     4.7990
       577    -6.8368   -11.6358     4.7990
       578    -6.8492   -11.6456     4.7964
       579    -6.8272   -11.6269     4.7997
       580    -6.8317   -11.6423     4.8106
       581    -6.8298   -11.6433     4.8136
       582    -6.8266   -11.6520     4.8253
       583    -6.8411   -11.6609     4.8198
       584    -6.9090   -11.7537     4.8447
       585    -6.9002   -11.7333     4.8331
       586    -6.8511   -11.6524     4.8013
       587    -6.9143   -11.7343     4.8200
       588    -6.8629   -11.6656     4.8027
       589    -6.8586   -11.6607     4.8021
       590    -6.8580   -11.6834     4.8253
       591    -6.8249   -11.6583     4.8333
       592    -6.8349   -11.6646     4.8297
       593    -6.8362   -11.6336     4.7975
       594    -6.8289   -11.6423     4.8134
       595    -6.8286   -11.6448     4.8163
       596    -6.8217   -11.6429     4.8212
       597    -6.8311   -11.6438     4.8127
       598    -6.8202   -11.6310     4.8108
       599    -6.8209   -11.6196     4.7986
       600    -6.8264   -11.6309     4.8045
       601    -6.8343   -11.6536     4.8193
       602    -6.8259   -11.6246     4.7987
       603    -6.8174   -11.6257     4.8083
       604    -6.8188   -11.6241     4.8052
       605    -6.8310   -11.6281     4.7972
       606    -6.8659   -11.6826     4.8167
       607    -6.8496   -11.6561     4.8065
       608    -6.8273   -11.6255     4.7981
       609    -6.8324   -11.6334     4.8010
       610    -6.8644   -11.6757     4.8113
       611    -6.8325   -11.6310     4.7985
       612    -6.8555   -11.6739     4.8184
       613    -6.9077   -11.7464     4.8387
       614    -6.8830   -11.7189     4.8359
       615    -6.9209   -11.7463     4.8254
       616    -6.9406   -11.7802     4.8396
       617    -6.9550   -11.7879     4.8329
       618    -6.9074   -11.7175     4.8101
       619    -6.9095   -11.7204     4.8109
       620    -6.8867   -11.6923     4.8056
       621    -6.9039   -11.7138     4.8100
       622    -6.9017   -11.7115     4.8098
       623    -6.8655   -11.6671     4.8016
       624    -6.8980   -11.7096     4.8116
       625    -6.8740   -11.6767     4.8027
       626    -6.8258   -11.6252     4.7995
       627    -6.8426   -11.6407     4.7980
       628    -6.8607   -11.6677     4.8070
       629    -6.8392   -11.6331     4.7939
       630    -6.8503   -11.6419     4.7915
       631    -6.8393   -11.6539     4.8146
       632    -6.8421   -11.6771     4.8350
       633    -6.8331   -11.6670     4.8339
       634    -6.8167   -11.6251     4.8084
       635    -6.8203   -11.6324     4.8121
       636    -6.8202   -11.6209     4.8007
       637    -6.8220   -11.6271     4.8051
       638    -6.8208   -11.6256     4.8048
       639    -6.8358   -11.6395     4.8037
       640    -6.8295   -11.6353     4.8059
       641    -6.8217   -11.6278     4.8061
       642    -6.8221   -11.6213     4.7992
       643    -6.8478   -11.6637     4.8159
       644    -6.8712   -11.6827     4.8115
       645    -6.8504   -11.6577     4.8073
       646    -6.8477   -11.6661     4.8183
       647    -6.8741   -11.6885     4.8144
       648    -6.8684   -11.6752     4.8068
       649    -6.8646   -11.6566     4.7920
       650    -6.8727   -11.6765     4.8038
       651    -6.8935   -11.7039     4.8104
       652    -6.9048   -11.7109     4.8061
       653    -6.9071   -11.7212     4.8141
       654    -6.8997   -11.7116     4.8118
       655    -6.8855   -11.6998     4.8143
       656    -6.9024   -11.7130     4.8106
       657    -6.8893   -11.6965     4.8072
       658    -6.8583   -11.6599     4.8016
       659    -6.8654   -11.6745     4.8091
       660    -6.8404   -11.6477     4.8072
       661    -6.8617   -11.6753     4.8136
       662    -6.8331   -11.6485     4.8154
       663    -6.8406   -11.6544     4.8137
       664    -6.8501   -11.6756     4.8254
       665    -6.8579   -11.7052     4.8473
       666    -6.8621   -11.7217     4.8596
       667    -6.8496   -11.6678     4.8183
       668    -6.8711   -11.6757     4.8046
       669    -6.8889   -11.6979     4.8090
       670    -6.8441   -11.6394     4.7953
       671    -6.9293   -11.7753     4.8460
       672    -6.9122   -11.7398     4.8276
       673    -6.8822   -11.6897     4.8075
       674    -6.8741   -11.6745     4.8004
       675    -6.9008   -11.7274     4.8266
       676    -6.9471   -11.7819     4.8349
       677    -6.8688   -11.6853     4.8164
       678    -6.8693   -11.7132     4.8439
       679    -6.8324   -11.6365     4.8041
       680    -6.8373   -11.6444     4.8070
       681    -6.8374   -11.6441     4.8067
       682    -6.8279   -11.6261     4.7981
       683    -6.8285   -11.6326     4.8040
       684    -6.8275   -11.6448     4.8173
       685    -6.8281   -11.6323     4.8043
       686    -6.8338   -11.6280     4.7942
       687    -6.8309   -11.6257     4.7948
       688    -6.8240   -11.6306     4.8066
       689    -6.8354   -11.6317     4.7963
       690    -6.8609   -11.6592     4.7983
       691    -6.8518   -11.6569     4.8051
       692    -6.8953   -11.7011     4.8058
       693    -6.8523   -11.6556     4.8033
       694    -6.8514   -11.6597     4.8083
       695    -6.8355   -11.6313     4.7958
       696    -6.8375   -11.6414     4.8040
       697    -6.8481   -11.6625     4.8144
       698    -6.8269   -11.6266     4.7997
       699    -6.8270   -11.6315     4.8045
       700    -6.8431   -11.6596     4.8165
       701    -6.8775   -11.6917     4.8143
       702    -6.8227   -11.6361     4.8134
       703    -6.8250   -11.6315     4.8064
       704    -6.8248   -11.6493     4.8245
       705    -6.8241   -11.6552     4.8311
       706    -6.8183   -11.6294     4.8111
       707    -6.8361   -11.6411     4.8050
       708    -6.8300   -11.6343     4.8043
       709    -6.8612   -11.6651     4.8038
       710    -6.8270   -11.6226     4.7956
       711    -6.8259   -11.6297     4.8038
       712    -6.8390   -11.6345     4.7955
       713    -6.8346   -11.6416     4.8070
       714    -6.8228   -11.6193     4.7965
       715    -6.8289   -11.6336     4.8047
       716    -6.8328   -11.6415     4.8087
       717    -6.8497   -11.6444     4.7947
       718    -6.8586   -11.6567     4.7981
       719    -6.8553   -11.6605     4.8053
       720    -6.8479   -11.6430     4.7951
       721    -6.8279   -11.6314     4.8035
       722    -6.8483   -11.6456     4.7972
       723    -6.8257   -11.6323     4.8066
       724    -6.8523   -11.6782     4.8258
       725    -6.8292   -11.6325     4.8033
       726    -6.8408   -11.6376     4.7968
       727    -6.8256   -11.6274     4.8017
       728    -6.8188   -11.6221     4.8033
       729    -6.8195   -11.6288     4.8093
       730    -6.8166   -11.6284     4.8118
       731    -6.8400   -11.6419     4.8019
       732    -6.8294   -11.6238     4.7944
       733    -6.8322   -11.6247     4.7925
       734    -6.8661   -11.6651     4.7990
       735    -6.8575   -11.6523     4.7948
       736    -6.8514   -11.6471     4.7956
       737    -6.8254   -11.6234     4.7980
       738    -6.8308   -11.6369     4.8060
       739    -6.8335   -11.6298     4.7963
       740    -6.8423   -11.6499     4.8075
       741    -6.8294   -11.6376     4.8082
       742    -6.9030   -11.7270     4.8240
       743    -6.8561   -11.6685     4.8123
       744    -6.9364   -11.7989     4.8625
       745    -6.9137   -11.7590     4.8452
       746    -6.9267   -11.7529     4.8262
       747    -6.9327   -11.7832     4.8506
       748    -6.8932   -11.6975     4.8043
       749    -6.8710   -11.6752     4.8042
       750    -6.8326   -11.6599     4.8273
       751    -6.8242   -11.6443     4.8200
       752    -6.8565   -11.6740     4.8175
       753    -6.8448   -11.6654     4.8206
       754    -6.8386   -11.6616     4.8229
       755    -6.8746   -11.7061     4.8315
       756    -6.8359   -11.6622     4.8263
       757    -6.8304   -11.6296     4.7992
       758    -6.8203   -11.6227     4.8024
       759    -6.8405   -11.6481     4.8076
       760    -6.8420   -11.6460     4.8039
       761    -6.8295   -11.6243     4.7947
       762    -6.8344   -11.6287     4.7943
       763    -6.8227   -11.6212     4.7984
       764    -6.8367   -11.6457     4.8090
       765    -6.8198   -11.6227     4.8029
       766    -6.8206   -11.6267     4.8061
       767    -6.8345   -11.6296     4.7951
       768    -6.8221   -11.6238     4.8016
       769    -6.8333   -11.6408     4.8075
       770    -6.8608   -11.6878     4.8270
       771    -6.8942   -11.7283     4.8341
       772    -6.8509   -11.6458     4.7949
       773    -6.8707   -11.6675     4.7968
       774    -6.8616   -11.6621     4.8005
       775    -6.8374   -11.6331     4.7957
       776    -6.8609   -11.6663     4.8054
       777    -6.8793   -11.6849     4.8057
       778    -6.8452   -11.6559     4.8107
       779    -6.8859   -11.7154     4.8295
       780    -6.8855   -11.7417     4.8561
       781    -6.8500   -11.6725     4.8225
       782    -6.8538   -11.6801     4.8263
       783    -6.8588   -11.6857     4.8268
       784    -6.8596   -11.6727     4.8131
       785    -6.8600   -11.6578     4.7978
       786    -6.8565   -11.6557     4.7992
       787    -6.8312   -11.6321     4.8009
       788    -6.8671   -11.6682     4.8011
       789    -6.8554   -11.6577     4.8023
       790    -6.8490   -11.6441     4.7952
       791    -6.8424   -11.6416     4.7992
       792    -6.8354   -11.6399     4.8045
       793    -6.8352   -11.6306     4.7954
       794    -6.8342   -11.6336     4.7994
       795    -6.8178   -11.6284     4.8106
       796    -6.8196   -11.6315     4.8120
       797    -6.8298   -11.6326     4.8028
       798    -6.8217   -11.6219     4.8002
       799    -6.8251   -11.6337     4.8086
       800    -6.8366   -11.6399     4.8034
       801    -6.8498   -11.6750     4.8252
       802    -6.8288   -11.6312     4.8024
       803    -6.8250   -11.6218     4.7967
       804    -6.8406   -11.6606     4.8200
       805    -6.8511   -11.6826     4.8314
       806    -6.8264   -11.6311     4.8047
       807    -6.8379   -11.6489     4.8111
       808    -6.8454   -11.6497     4.8043
       809    -6.8411   -11.6373     4.7962
       810    -6.8530   -11.6577     4.8048
       811    -6.8449   -11.6458     4.8009
       812    -6.8340   -11.6427     4.8087
       813    -6.8675   -11.6979     4.8304
       814    -6.8388   -11.6703     4.8315
       815    -6.8194   -11.6266     4.8073
       816    -6.8310   -11.6587     4.8276
       817    -6.8167   -11.6224     4.8057
       818    -6.8320   -11.6304     4.7984
       819    -6.8458   -11.6432     4.7974
       820    -6.8344   -11.6584     4.8240
       821    -6.8509   -11.6600     4.8091
       822    -6.8686   -11.7024     4.8338
       823    -6.8457   -11.6433     4.7976
       824    -6.8500   -11.6537     4.8037
       825    -6.8452   -11.6464     4.8012
       826    -6.8572   -11.6523     4.7951
       827    -6.8722   -11.6753     4.8031
       828    -6.8347   -11.6329     4.7981
       829    -6.8241   -11.6363     4.8123
       830    -6.8547   -11.6741     4.8194
       831    -6.8430   -11.6488     4.8057
       832    -6.8446   -11.6442     4.7996
       833    -6.8373   -11.6482     4.8109
       834    -6.8339   -11.6657     4.8319
       835    -6.8284   -11.6379     4.8095
       836    -6.8482   -11.6654     4.8172
       837    -6.8440   -11.6821     4.8380
       838    -6.8268   -11.6584     4.8316
       839    -6.8434   -11.6577     4.8143
       840    -6.8371   -11.6464     4.8093
       841    -6.8287   -11.6291     4.8003
       842    -6.8358   -11.6321     4.7962
       843    -6.8385   -11.6297     4.7911
       844    -6.8234   -11.6308     4.8074
       845    -6.8248   -11.6590     4.8341
       846    -6.8326   -11.6667     4.8342
       847    -6.8291   -11.6681     4.8390
       848    -6.8229   -11.6455     4.8226
       849    -6.8217   -11.6209     4.7992
       850    -6.8544   -11.6531     4.7986
       851    -6.8418   -11.6352     4.7934
       852    -6.8434   -11.6443     4.8008
       853    -6.8427   -11.6548     4.8121
       854    -6.8197   -11.6265     4.8068
       855    -6.8342   -11.6332     4.7990
       856    -6.8298   -11.6274     4.7976
       857    -6.8296   -11.6347     4.8051
       858    -6.8538   -11.6516     4.7978
       859    -6.8457   -11.6388     4.7932
       860    -6.8281   -11.6238     4.7957
       861    -6.8238   -11.6211     4.7973
       862    -6.8390   -11.6317     4.7927
       863    -6.8564   -11.6604     4.8039
       864    -6.8575   -11.6523     4.7947
       865    -6.8456   -11.6403     4.7947
       866    -6.8214   -11.6229     4.8015
       867    -6.8224   -11.6233     4.8010
       868    -6.8246   -11.6280     4.8034
       869    -6.8181   -11.6322     4.8141
       870    -6.8251   -11.6390     4.8140
       871    -6.8304   -11.6378     4.8074
       872    -6.8189   -11.6378     4.8189
       873    -6.8333   -11.6471     4.8137
       874    -6.8233   -11.6348     4.8115
       875    -6.8317   -11.6281     4.7964
       876    -6.8393   -11.6348     4.7955
       877    -6.8511   -11.6562     4.8051
       878    -6.8516   -11.6568     4.8052
       879    -6.8462   -11.6466     4.8005
       880    -6.8264   -11.6251     4.7987
       881    -6.8371   -11.6410     4.8039
       882    -6.8341   -11.6378     4.8037
       883    -6.8593   -11.6631     4.8038
       884    -6.8599   -11.6574     4.7975
       885    -6.8336   -11.6320     4.7983
       886    -6.8518   -11.6478     4.7960
       887    -6.8224   -11.6202     4.7978
       888    -6.8251   -11.6234     4.7983
       889    -6.8214   -11.6402     4.8188
       890    -6.8269   -11.6572     4.8303
       891    -6.8185   -11.6341     4.8157
       892    -6.8250   -11.6463     4.8213
       893    -6.8309   -11.6576     4.8267
       894    -6.8452   -11.6774     4.8322
       895    -6.8303   -11.6556     4.8253
       896    -6.8309   -11.6684     4.8376
       897    -6.8293   -11.6432     4.8138
       898    -6.8706   -11.7100     4.8394
       899    -6.8759   -11.7055     4.8296
       900    -6.8962   -11.7394     4.8431
       901    -6.8602   -11.6876     4.8274
       902    -6.8684   -11.6833     4.8149
       903    -6.8857   -11.7020     4.8163
       904    -6.8861   -11.6990     4.8129
       905    -6.8745   -11.6817     4.8072
       906    -6.8678   -11.6669     4.7991
       907    -6.8541   -11.6680     4.8139
       908    -6.8297   -11.6407     4.8110
       909    -6.8405   -11.6512     4.8107
       910    -6.8354   -11.6516     4.8162
       911    -6.8306   -11.6642     4.8336
       912    -6.8178   -11.6316     4.8138
       913    -6.8539   -11.6796     4.8257
       914    -6.8967   -11.7486     4.8519
       915    -6.8635   -11.6915     4.8280
       916    -6.8474   -11.6867     4.8392
       917    -6.8183   -11.6281     4.8098
       918    -6.8264   -11.6384     4.8120
       919    -6.8185   -11.6238     4.8053
       920    -6.8418   -11.6910     4.8493
       921    -6.8344   -11.6816     4.8472
       922    -6.8471   -11.7060     4.8590
       923    -6.8359   -11.6719     4.8360
       924    -6.8358   -11.6810     4.8451
       925    -6.8262   -11.6474     4.8213
       926    -6.8260   -11.6504     4.8245
       927    -6.8185   -11.6357     4.8171
       928    -6.8304   -11.6307     4.8004
       929    -6.8318   -11.6481     4.8163
       930    -6.8165   -11.6271     4.8105
       931    -6.8171   -11.6284     4.8113
       932    -6.8376   -11.6517     4.8141
       933    -6.8396   -11.6366     4.7971
       934    -6.8512   -11.6460     4.7948
       935    -6.8795   -11.6826     4.8031
       936    -6.8676   -11.6691     4.8015
       937    -6.8917   -11.7073     4.8156
       938    -6.8810   -11.6902     4.8092
       939    -6.8772   -11.6846     4.8074
       940    -6.8831   -11.6855     4.8024
       941    -6.8465   -11.6445     4.7980
       942    -6.8367   -11.6323     4.7957
       943    -6.8217   -11.6342     4.8126
       944    -6.8173   -11.6214     4.8041
       945    -6.8421   -11.6564     4.8143
       946    -6.8292   -11.6484     4.8192
       947    -6.8297   -11.6330     4.8033
       948    -6.8206   -11.6254     4.8048
       949    -6.8241   -11.6250     4.8009
       950    -6.8646   -11.6605     4.7958
       951    -6.8610   -11.6680     4.8070
       952    -6.8405   -11.6370     4.7965
       953    -6.8267   -11.6227     4.7959
       954    -6.8272   -11.6311     4.8039
       955    -6.8539   -11.6520     4.7982
       956    -6.8376   -11.6432     4.8057
       957    -6.8582   -11.6530     4.7948
       958    -6.8504   -11.6533     4.8030
       959    -6.8678   -11.6808     4.8130
       960    -6.8941   -11.7197     4.8255
       961    -6.8663   -11.6864     4.8201
       962    -6.8404   -11.6367     4.7963
       963    -6.8337   -11.6302     4.7965
       964    -6.8342   -11.6297     4.7955
       965    -6.8271   -11.6228     4.7957
       966    -6.8443   -11.6436     4.7993
       967    -6.8312   -11.6404     4.8092
       968    -6.8281   -11.6297     4.8016
       969    -6.8176   -11.6257     4.8081
       970    -6.8423   -11.6648     4.8225
       971    -6.8238   -11.6464     4.8226
       972    -6.8381   -11.6724     4.8343
       973    -6.8216   -11.6408     4.8193
       974    -6.8396   -11.6505     4.8109
       975    -6.8267   -11.6403     4.8137
       976    -6.8347   -11.6483     4.8136
       977    -6.8493   -11.6837     4.8344
       978    -6.8585   -11.6802     4.8217
       979    -6.8923   -11.7130     4.8207
       980    -6.8931   -11.7294     4.8363
       981    -6.8527   -11.6479     4.7951
       982    -6.8537   -11.6558     4.8021
       983    -6.8430   -11.6407     4.7976
       984    -6.8448   -11.6409     4.7962
       985    -6.8502   -11.6477     4.7975
       986    -6.8322   -11.6309     4.7987
       987    -6.8352   -11.6334     4.7982
       988    -6.8261   -11.6246     4.7984
       989    -6.8574   -11.6638     4.8065
       990    -6.8703   -11.6805     4.8101
       991    -6.8420   -11.6567     4.8147
       992    -6.8337   -11.6363     4.8025
       993    -6.8299   -11.6423     4.8124
       994    -6.8433   -11.6741     4.8308
       995    -6.8289   -11.6336     4.8047
       996    -6.8532   -11.6608     4.8076
       997    -6.8398   -11.6575     4.8177
       998    -6.8447   -11.6640     4.8193
       999    -6.8568   -11.6757     4.8189
      1000    -6.8303   -11.6485     4.8183
